Wavelength(nm)	PFD(umol m-2 s-1)
380	0.000307
381	0.000304
382	0.000313
383	0.000322
384	0.000326
385	0.000329
386	0.000326
387	0.000321
388	0.000315
389	0.000303
390	0.000285
391	0.000280
392	0.000291
393	0.000293
394	0.000291
395	0.000283
396	0.000274
397	0.000283
398	0.000294
399	0.000304
400	0.000314
401	0.000320
402	0.000328
403	0.000343
404	0.000358
405	0.000370
406	0.000385
407	0.000405
408	0.000446
409	0.000503
410	0.000559
411	0.000614
412	0.000698
413	0.000788
414	0.000931
415	0.001083
416	0.001292
417	0.001515
418	0.001786
419	0.002093
420	0.002476
421	0.002926
422	0.003457
423	0.004104
424	0.004833
425	0.005736
426	0.006710
427	0.007999
428	0.009351
429	0.011163
430	0.013068
431	0.015588
432	0.018285
433	0.021513
434	0.024999
435	0.028907
436	0.032881
437	0.036921
438	0.040608
439	0.044107
440	0.046557
441	0.048716
442	0.049315
443	0.049686
444	0.048511
445	0.047092
446	0.044624
447	0.041930
448	0.038777
449	0.035571
450	0.032308
451	0.029301
452	0.026459
453	0.024093
454	0.021885
455	0.020095
456	0.018361
457	0.016922
458	0.015498
459	0.014174
460	0.012874
461	0.011631
462	0.010447
463	0.009331
464	0.008315
465	0.007360
466	0.006558
467	0.005802
468	0.005211
469	0.004644
470	0.004221
471	0.003814
472	0.003472
473	0.003152
474	0.002870
475	0.002608
476	0.002366
477	0.002134
478	0.001905
479	0.001733
480	0.001571
481	0.001435
482	0.001302
483	0.001185
484	0.001081
485	0.001003
486	0.000926
487	0.000849
488	0.000792
489	0.000747
490	0.000699
491	0.000650
492	0.000614
493	0.000578
494	0.000545
495	0.000514
496	0.000489
497	0.000468
498	0.000451
499	0.000437
500	0.000424
501	0.000414
502	0.000405
503	0.000397
504	0.000390
505	0.000390
506	0.000382
507	0.000361
508	0.000352
509	0.000353
510	0.000347
511	0.000338
512	0.000341
513	0.000344
514	0.000338
515	0.000332
516	0.000325
517	0.000320
518	0.000314
519	0.000312
520	0.000311
521	0.000307
522	0.000303
523	0.000305
524	0.000306
525	0.000296
526	0.000293
527	0.000299
528	0.000294
529	0.000282
530	0.000284
531	0.000290
532	0.000283
533	0.000279
534	0.000287
535	0.000291
536	0.000288
537	0.000292
538	0.000301
539	0.000301
540	0.000298
541	0.000290
542	0.000284
543	0.000285
544	0.000290
545	0.000299
546	0.000300
547	0.000297
548	0.000288
549	0.000280
550	0.000279
551	0.000282
552	0.000293
553	0.000292
554	0.000280
555	0.000289
556	0.000306
557	0.000293
558	0.000283
559	0.000290
560	0.000293
561	0.000290
562	0.000295
563	0.000304
564	0.000296
565	0.000287
566	0.000289
567	0.000291
568	0.000291
569	0.000301
570	0.000318
571	0.000301
572	0.000278
573	0.000299
574	0.000311
575	0.000300
576	0.000300
577	0.000310
578	0.000300
579	0.000283
580	0.000288
581	0.000294
582	0.000302
583	0.000296
584	0.000275
585	0.000288
586	0.000310
587	0.000317
588	0.000320
589	0.000311
590	0.000307
591	0.000306
592	0.000298
593	0.000288
594	0.000289
595	0.000290
596	0.000294
597	0.000306
598	0.000322
599	0.000325
600	0.000322
601	0.000292
602	0.000282
603	0.000301
604	0.000319
605	0.000337
606	0.000343
607	0.000342
608	0.000319
609	0.000304
610	0.000296
611	0.000305
612	0.000318
613	0.000321
614	0.000326
615	0.000333
616	0.000332
617	0.000326
618	0.000330
619	0.000338
620	0.000355
621	0.000358
622	0.000345
623	0.000333
624	0.000325
625	0.000343
626	0.000353
627	0.000351
628	0.000358
629	0.000368
630	0.000359
631	0.000352
632	0.000352
633	0.000370
634	0.000397
635	0.000376
636	0.000358
637	0.000355
638	0.000357
639	0.000363
640	0.000358
641	0.000358
642	0.000381
643	0.000384
644	0.000371
645	0.000364
646	0.000361
647	0.000370
648	0.000374
649	0.000373
650	0.000357
651	0.000347
652	0.000369
653	0.000386
654	0.000398
655	0.000390
656	0.000383
657	0.000387
658	0.000388
659	0.000385
660	0.000387
661	0.000384
662	0.000368
663	0.000359
664	0.000356
665	0.000395
666	0.000414
667	0.000386
668	0.000370
669	0.000363
670	0.000402
671	0.000416
672	0.000395
673	0.000398
674	0.000405
675	0.000386
676	0.000401
677	0.000450
678	0.000426
679	0.000404
680	0.000415
681	0.000409
682	0.000393
683	0.000407
684	0.000415
685	0.000414
686	0.000419
687	0.000424
688	0.000429
689	0.000421
690	0.000401
691	0.000438
692	0.000461
693	0.000450
694	0.000442
695	0.000435
696	0.000437
697	0.000452
698	0.000477
699	0.000455
700	0.000444
701	0.000459
702	0.000454
703	0.000447
704	0.000462
705	0.000454
706	0.000428
707	0.000458
708	0.000472
709	0.000463
710	0.000464
711	0.000464
712	0.000459
713	0.000441
714	0.000424
715	0.000462
716	0.000484
717	0.000493
718	0.000466
719	0.000446
720	0.000440
721	0.000464
722	0.000484
723	0.000480
724	0.000479
725	0.000478
726	0.000467
727	0.000461
728	0.000460
729	0.000472
730	0.000489
731	0.000509
732	0.000499
733	0.000485
734	0.000464
735	0.000506
736	0.000525
737	0.000496
738	0.000497
739	0.000500
740	0.000499
741	0.000497
742	0.000500
743	0.000515
744	0.000543
745	0.000560
746	0.000527
747	0.000525
748	0.000532
749	0.000515
750	0.000536
751	0.000568
752	0.000568
753	0.000548
754	0.000522
755	0.000521
756	0.000542
757	0.000568
758	0.000572
759	0.000572
760	0.000576
761	0.000602
762	0.000573
763	0.000544
764	0.000618
765	0.000617
766	0.000585
767	0.000549
768	0.000584
769	0.000622
770	0.000611
771	0.000617
772	0.000626
773	0.000632
774	0.000628
775	0.000613
776	0.000582
777	0.000621
778	0.000656
779	0.000683
780	0.000694
